[Soniq Version]
Number	5.3.6.0
Serial Number	0259
Soniq.exe CRC32	62FB5898

[User]
Name

[Transducer]
Model	test
Serial	61235
System Model
System Serial
System Software Rev.
Frequency	5 MHz
PRF	0.05 Hz
Power	-2.311E6 mW
Bounded Power	-2.311E6 mW
Bounded Square Power	-2.311E6 mW
Mode
Scanned	FALSE
XDim	0
YDim	0
Circular	TRUE
TPWidth	0
FLX	0
FLY	0
Curved	FALSE
Sector Scanner	FALSE
Radius	0
Line Spacing	0
Diameter	1.27
Line Angle	0
Line Count	1
Frame Rate	0
Pulses Per Scan Line	1
Zbp	1.90210885009925
Cranial Use	FALSE

[Hydrophone]
Model	HGL-0200
Serial Number	1782
Preamp Model	AG-2010
Preamp Serial Number	1199
Inverted	FALSE
Voltage Limit	2
Conversion Type	Look Up
Use Nonlinearity Correction	FALSE
Temperature	0
Krf	0
Table File Name
Calibration Date	1/29/2019
Calibration File Name	C:\Users\Verasonics\Desktop\Taylor\Code\Aims\Calibrations\Combined\HGL0200-1782_AG-2010-1199_OndaCombineCal_20190129_1-20MHz_withConnector.txt
Sensitivity
1	0.2031
1.05	0.2
1.1	0.1974
1.15	0.1932
1.2	0.1812
1.25	0.186
1.3	0.1849
1.35	0.1744
1.4	0.1713
1.45	0.1698
1.5	0.1695
1.55	0.1662
1.6	0.1656
1.65	0.1687
1.7	0.1601
1.75	0.1572
1.8	0.1652
1.85	0.1673
1.9	0.1659
1.95	0.1643
2	0.1643
2.05	0.1639
2.1	0.1624
2.15	0.1614
2.2	0.1613
2.25	0.1612
2.3	0.1654
2.35	0.1621
2.4	0.1623
2.45	0.1601
2.5	0.1577
2.55	0.1569
2.6	0.1607
2.65	0.1581
2.7	0.1573
2.75	0.1622
2.8	0.1673
2.85	0.1653
2.9	0.1629
2.95	0.1629
3	0.163
3.05	0.1638
3.1	0.1647
3.15	0.1658
3.2	0.1665
3.25	0.1642
3.3	0.1637
3.35	0.1646
3.4	0.1675
3.45	0.1688
3.5	0.1636
3.55	0.1607
3.6	0.1654
3.65	0.1665
3.7	0.1636
3.75	0.1633
3.8	0.1634
3.85	0.1614
3.9	0.1586
3.95	0.1601
4	0.1649
4.05	0.1648
4.1	0.1615
4.15	0.1595
4.2	0.1603
4.25	0.1638
4.3	0.1656
4.35	0.1664
4.4	0.1673
4.45	0.1661
4.5	0.1633
4.55	0.1608
4.6	0.1591
4.65	0.1616
4.7	0.1665
4.75	0.1683
4.8	0.1694
4.85	0.1683
4.9	0.1695
4.95	0.1711
5	0.1712
5.05	0.1726
5.1	0.1747
5.15	0.176
5.2	0.1756
5.25	0.1731
5.3	0.1722
5.35	0.1733
5.4	0.1746
5.45	0.1754
5.5	0.1735
5.55	0.1723
5.6	0.1715
5.65	0.1708
5.7	0.1695
5.75	0.1695
5.8	0.1697
5.85	0.169
5.9	0.1687
5.95	0.1671
6	0.167
6.05	0.1662
6.1	0.1669
6.15	0.1679
6.2	0.1671
6.25	0.1657
6.3	0.1642
6.35	0.1663
6.4	0.1686
6.45	0.1713
6.5	0.1703
6.55	0.1679
6.6	0.1656
6.65	0.1635
6.7	0.1638
6.75	0.1651
6.8	0.1643
6.85	0.1635
6.9	0.1634
6.95	0.1642
7	0.1648
7.05	0.166
7.1	0.1636
7.15	0.1633
7.2	0.1643
7.25	0.1648
7.3	0.1645
7.35	0.1632
7.4	0.1627
7.45	0.1636
7.5	0.1639
7.55	0.1656
7.6	0.1641
7.65	0.1633
7.7	0.1639
7.75	0.1632
7.8	0.1634
7.85	0.164
7.9	0.1642
7.95	0.1652
8	0.165
8.05	0.1662
8.1	0.1646
8.15	0.1637
8.2	0.1634
8.25	0.1635
8.3	0.1637
8.35	0.1638
8.4	0.1651
8.45	0.1654
8.5	0.1659
8.55	0.1648
8.6	0.1645
8.65	0.1645
8.7	0.1644
8.75	0.1644
8.8	0.1635
8.85	0.1637
8.9	0.1647
8.95	0.1657
9	0.1663
9.05	0.1663
9.1	0.1661
9.15	0.166
9.2	0.1655
9.25	0.1644
9.3	0.1638
9.35	0.1636
9.4	0.1631
9.45	0.1619
9.5	0.1604
9.55	0.1589
9.6	0.1586
9.65	0.1599
9.7	0.1619
9.75	0.1626
9.8	0.1619
9.85	0.1611
9.9	0.1605
9.95	0.1603
10	0.1601
10.05	0.1594
10.1	0.1594
10.15	0.1593
10.2	0.1562
10.25	0.1549
10.3	0.1547
10.35	0.1537
10.4	0.1533
10.45	0.1536
10.5	0.1545
10.55	0.1536
10.6	0.1531
10.65	0.1524
10.7	0.1498
10.75	0.1477
10.8	0.1467
10.85	0.1454
10.9	0.1442
10.95	0.143
11	0.1417
11.05	0.1416
11.1	0.1419
11.15	0.143
11.2	0.1433
11.25	0.1436
11.3	0.1443
11.35	0.1456
11.4	0.1461
11.45	0.1467
11.5	0.1476
11.55	0.1481
11.6	0.1505
11.65	0.1511
11.7	0.1505
11.75	0.1508
11.8	0.1504
11.85	0.1509
11.9	0.1511
11.95	0.1521
12	0.1536
12.05	0.1552
12.1	0.1555
12.15	0.155
12.2	0.155
12.25	0.1555
12.3	0.1539
12.35	0.1527
12.4	0.1559
12.45	0.1574
12.5	0.159
12.55	0.1599
12.6	0.16
12.65	0.1622
12.7	0.1637
12.75	0.1641
12.8	0.1646
12.85	0.1644
12.9	0.1646
12.95	0.1647
13	0.1647
13.05	0.1636
13.1	0.1622
13.15	0.1625
13.2	0.1627
13.25	0.1608
13.3	0.1603
13.35	0.1603
13.4	0.1614
13.45	0.164
13.5	0.1638
13.55	0.1619
13.6	0.1619
13.65	0.1629
13.7	0.1622
13.75	0.1621
13.8	0.1629
13.85	0.162
13.9	0.1607
13.95	0.1584
14	0.1584
14.05	0.159
14.1	0.1586
14.15	0.1593
14.2	0.1588
14.25	0.1584
14.3	0.1564
14.35	0.1552
14.4	0.1561
14.45	0.1573
14.5	0.1569
14.55	0.1561
14.6	0.156
14.65	0.1558
14.7	0.1575
14.75	0.1566
14.8	0.1556
14.85	0.155
14.9	0.1541
14.95	0.1539
15	0.1525
15.05	0.1526
15.1	0.1554
15.15	0.1539
15.2	0.1525
15.25	0.152
15.3	0.1534
15.35	0.1518
15.4	0.1515
15.45	0.1507
15.5	0.1533
15.55	0.1532
15.6	0.1554
15.65	0.1574
15.7	0.1566
15.75	0.1584
15.8	0.1604
15.85	0.1585
15.9	0.1583
15.95	0.1596
16	0.16
16.05	0.1615
16.1	0.1606
16.15	0.1602
16.2	0.1598
16.25	0.1591
16.3	0.1612
16.35	0.1603
16.4	0.1575
16.45	0.1559
16.5	0.1568
16.55	0.1587
16.6	0.159
16.65	0.159
16.7	0.1594
16.75	0.1595
16.8	0.1593
16.85	0.162
16.9	0.1616
16.95	0.1583
17	0.1559
17.05	0.1582
17.1	0.1633
17.15	0.1627
17.2	0.157
17.25	0.1577
17.3	0.154
17.35	0.1515
17.4	0.154
17.45	0.1559
17.5	0.1557
17.55	0.1564
17.6	0.1572
17.65	0.1585
17.7	0.157
17.75	0.1552
17.8	0.1526
17.85	0.1498
17.9	0.1507
17.95	0.1518
18	0.1505
18.05	0.1497
18.1	0.1517
18.15	0.1536
18.2	0.1479
18.25	0.1561
18.3	0.1558
18.35	0.1563
18.4	0.1572
18.45	0.1589
18.5	0.1596
18.55	0.1571
18.6	0.1543
18.65	0.1577
18.7	0.1602
18.75	0.1574
18.8	0.1575
18.85	0.1563
18.9	0.1532
18.95	0.1529
19	0.1541
19.05	0.1564
19.1	0.1537
19.15	0.1532
19.2	0.1543
19.25	0.1518
19.3	0.1497
19.35	0.1509
19.4	0.1522
19.45	0.1529
19.5	0.1517
19.55	0.1499
19.6	0.1514
19.65	0.1502
19.7	0.1481
19.75	0.1499
19.8	0.1534
19.85	0.1522
19.9	0.1516
19.95	0.1518
20	0.1521

[Medium]
Temperature	25
Velocity	1496.69

[Orientation]
Round Trip	FALSE
X Axis	2
Y Axis	1
Beam Axis	0
Azimuthal Axis	3
Elevational Axis	4

[Distance Tracking]
Enabled	TRUE
Delay Offset	-3
Use Diagonal	FALSE

[Oscilloscope]
Manufacturer	Pico Technology
Model	5244A
Serial	FW908/007
CH1 VperDiv	0.002
CH1 Coupling	0
CH1 Offset	0
CH1 Probe	1
CH1 Inverted	FALSE
CH1 BWLimited	FALSE
CH2 VperDiv	0.1
CH2 Coupling	3
CH2 Offset	0
CH2 Probe	1
CH2 Inverted	FALSE
CH2 BWLimited	FALSE
Use Offset	FALSE
SecPerDiv	5E-6
Delay	7.02209832896211E-6
Average	FALSE
Median	FALSE
Averages	32
Use Correlation	TRUE
Points	6250
TriggerSource	0
TriggerMode	0
TriggerSlope	FALSE
TriggerCoupling	1
TriggerLevel	0.5
RemoteAveraging	FALSE
ShowWFWindow	FALSE
WFSource	1
Reference	0
Acq. Type	Normal
TriggerType	Edge
TriggerHoldoff	0
TriggerQualifier	Less Than
TriggerLessThanTime	0
TriggerGreaterThanTime	0
IdleTime	0
NthEdge	0
Resolution	8
WF Time Out	10
YDivs	10

[Positioner Config]
Type	EMDSUSBE
Firmware Version	1.1.6
Serial Number	2106

[Positioner]
Left/Right Spring Installed	TRUE
Front/Back Spring Installed	TRUE
Springs Verified	TRUE
Config Verified	TRUE
Axis 0 Name	Left/Right
Axis 0 Linear	TRUE
Axis 0 Units	mm
Axis 0 StepsPerMeterOrRev	90230
Axis 0 Scale Factor	1000
Axis 0 Position	15
Axis 0 Low Limit	5
Axis 0 High Limit	150
Axis 0 Increment	1
Axis 0 Overshoot	0
Axis 0 Reversed	TRUE
Axis 0 Limit Switches Reversed	FALSE
Axis 0 Ignore Limit Switches	FALSE
Axis 0 StepsPerSecond	1000
Axis 0 MinStepsPerSecond	800
Axis 0 RampSteps	40
Axis 0 Axis to Track	-1
Axis 1 Name	Front/Back
Axis 1 Linear	TRUE
Axis 1 Units	mm
Axis 1 StepsPerMeterOrRev	90230
Axis 1 Scale Factor	1000
Axis 1 Position	0
Axis 1 Low Limit	-40
Axis 1 High Limit	70
Axis 1 Increment	3
Axis 1 Overshoot	0
Axis 1 Reversed	FALSE
Axis 1 Limit Switches Reversed	FALSE
Axis 1 Ignore Limit Switches	FALSE
Axis 1 StepsPerSecond	1000
Axis 1 MinStepsPerSecond	800
Axis 1 RampSteps	40
Axis 1 Axis to Track	-1
Axis 2 Name	Up/Down
Axis 2 Linear	TRUE
Axis 2 Units	mm
Axis 2 StepsPerMeterOrRev	90230
Axis 2 Scale Factor	1000
Axis 2 Position	0
Axis 2 Low Limit	-100
Axis 2 High Limit	100
Axis 2 Increment	3
Axis 2 Overshoot	0
Axis 2 Reversed	FALSE
Axis 2 Limit Switches Reversed	FALSE
Axis 2 Ignore Limit Switches	FALSE
Axis 2 StepsPerSecond	1000
Axis 2 MinStepsPerSecond	800
Axis 2 RampSteps	40
Axis 2 Axis to Track	-1
Axis 3 Name	Ang. Arm
Axis 3 Linear	FALSE
Axis 3 Units	deg.
Axis 3 StepsPerMeterOrRev	7200
Axis 3 Scale Factor	360
Axis 3 Position	-2.25
Axis 3 Low Limit	-45
Axis 3 High Limit	90
Axis 3 Increment	1
Axis 3 Overshoot	1
Axis 3 Reversed	FALSE
Axis 3 Limit Switches Reversed	FALSE
Axis 3 Ignore Limit Switches	FALSE
Axis 3 StepsPerSecond	200
Axis 3 MinStepsPerSecond	160
Axis 3 RampSteps	40
Axis 3 Axis to Track	-1
Axis 4 Name	Ang. Turntable
Axis 4 Linear	FALSE
Axis 4 Units	deg.
Axis 4 StepsPerMeterOrRev	7200
Axis 4 Scale Factor	360
Axis 4 Position	-20.4
Axis 4 Low Limit	-30
Axis 4 High Limit	30
Axis 4 Increment	1
Axis 4 Overshoot	1
Axis 4 Reversed	FALSE
Axis 4 Limit Switches Reversed	FALSE
Axis 4 Ignore Limit Switches	FALSE
Axis 4 StepsPerSecond	200
Axis 4 MinStepsPerSecond	160
Axis 4 RampSteps	40
Axis 4 Axis to Track	3
Axis 5 Name	Unused
Axis 5 Linear	TRUE
Axis 5 Units	mm
Axis 5 StepsPerMeterOrRev	90230
Axis 5 Scale Factor	1000
Axis 5 Position	3.153
Axis 5 Low Limit	-100
Axis 5 High Limit	100
Axis 5 Increment	1
Axis 5 Overshoot	1
Axis 5 Reversed	FALSE
Axis 5 Limit Switches Reversed	FALSE
Axis 5 Ignore Limit Switches	FALSE
Axis 5 StepsPerSecond	1000
Axis 5 MinStepsPerSecond	800
Axis 5 RampSteps	40
Axis 5 Axis to Track	-1
Use Machine Coordinates	TRUE
X Angle	0
Y Angle	0
Z Angle	0
Angular Positioner Installed	FALSE

[Options]
Subtract Mean Peak	TRUE
Subtract Mean RMS	TRUE
Subtract Mean Integral	TRUE

[System Info]
Computer Name	VERASONICS
Computer Mfg.	Dell Inc.
Computer Model	Precision 5820 Tower
OS	Microsoft Windows 10 Enterprise 2016 LTSB 64-bit
OS Version	10.0.14393.0
OS Serial Number	00380-71600-11266-AAOEM
System Drive	C:\
System Drive Serial Number	06A4A847
Processor Mfg.	GenuineIntel
Processor Desc.	Intel64 Family 6 Model 85 Stepping 4
Clock Speed	3.31 GHz
Total Memory	31.68 GB
Free Memory	25.40 GB
Local IP Address	155.98.15.127
Public IP Address	155.98.15.127

[File Info]
Date	8/26/2019 3:38:44 PM

[1D Scan]
Auto Scale Mode	Auto
Line Width	1
View Mode	2048
Selected	0
View Derated	FALSE
Scale Mode	Linear
After Scan	GoBack
Pause	100
Elapsed Time	00:00:20.666
Record Waveforms	FALSE
Record Pressure Waveforms	FALSE
Save Waveforms	FALSE
Real Time Plotting	TRUE
Start Temperature	25
End Temperature	25
Parameter 0	Negative Peak Voltage	V
Use Pressure WF	FALSE
Axis	0
Points	85
Start Position	15
End Position	100
Smoothed	TRUE
WFIndex	2
XCount	1
XMin	0
XMax	0
XIncrement	0
YCount	85
YMin	15
YMax	100
YIncrement	1.01190476190476

[1D Scan Data]
	0
15	-0.00669633680659113
16.0119047619048	-0.00669469030119013
17.0238095238095	-0.0070202789272333
18.0357142857143	-0.00679064142478746
19.047619047619	-0.00647617572802817
20.0595238095238	-0.00646548793367343
21.0714285714286	-0.00657973536461359
22.0833333333333	-0.00713369510545162
23.0952380952381	-0.00745931070383638
24.1071428571429	-0.00734064948896295
25.1190476190476	-0.00702849885728559
26.1309523809524	-0.00624799287263886
27.1428571428571	-0.00604892475776258
28.1547619047619	-0.00602763553554076
29.1666666666667	-0.00581102878745995
30.1785714285714	-0.00570445867118309
31.1904761904762	-0.00548258880745503
32.2023809523809	-0.00571634405279532
33.2142857142857	-0.00657608674421441
34.2261904761905	-0.00746869063185412
35.2380952380952	-0.00811096465936629
36.25	-0.00878636455129483
37.2619047619048	-0.00909801046986016
38.2738095238095	-0.00933710709931911
39.2857142857143	-0.00942322626028792
40.297619047619	-0.00935065556551795
41.3095238095238	-0.00934886865491513
42.3214285714286	-0.0091245832922915
43.3333333333333	-0.00931204760357155
44.3452380952381	-0.00878108758119168
45.3571428571429	-0.00823108529309393
46.3690476190476	-0.0077839742066164
47.3809523809524	-0.00725554773489363
48.3928571428571	-0.00679509609480971
49.4047619047619	-0.00614426677326672
50.4166666666667	-0.0057207398192375
51.4285714285714	-0.00527944485115935
52.4404761904762	-0.00505404991682502
53.4523809523809	-0.00471960877911071
54.4642857142857	-0.0045027188620565
55.4761904761905	-0.00450686856815009
56.4880952380952	-0.00449773564549745
57.5	-0.00450849652130506
58.5119047619048	-0.00438577187454677
59.5238095238095	-0.00449028844987974
60.5357142857143	-0.00450113889244385
61.547619047619	-0.00427915844814037
62.5595238095238	-0.00416093503088807
63.5714285714286	-0.00439196532611619
64.5833333333333	-0.00416711593727232
65.5952380952381	-0.00406463885442237
66.6071428571429	-0.00428122606993187
67.6190476190476	-0.00450058790481649
68.6309523809524	-0.00505091335126199
69.6428571428571	-0.00525692181808408
70.6547619047619	-0.00558793554624193
71.6666666666667	-0.00593123630516231
72.6785714285714	-0.00624662963442504
73.6904761904762	-0.00636622407026472
74.7023809523809	-0.00668156584323035
75.7142857142857	-0.00691326545430697
76.7261904761905	-0.00713396075968398
77.7380952380952	-0.00724171780596022
78.75	-0.00757119706509518
79.7619047619048	-0.0076865093785862
80.7738095238095	-0.00800118748420034
81.7857142857143	-0.0081196090956463
82.7976190476191	-0.00822491309899138
83.8095238095238	-0.00844568679973367
84.8214285714286	-0.00856708385940525
85.8333333333333	-0.00865604829385993
86.8452380952381	-0.00877048546336824
87.8571428571429	-0.00888114581735805
88.8690476190476	-0.00955117725296761
89.8809523809524	-0.00921025392789626
90.8928571428571	-0.00933776989083504
91.9047619047619	-0.00942856719978037
92.9166666666667	-0.00943840184578905
93.9285714285714	-0.0097549043545418
94.9404761904762	-0.00964516604217933
95.9523809523809	-0.00979588797166711
96.9642857142857	-0.0100143312585563
97.9761904761905	-0.00978352340580895
98.9880952380952	-0.00999653155244654
100	-0.00999827407346573

[Calculations]
Z Distance	15
Temperature	25
Center	98.4797071425531

